! Center RA: 02 17 48.95475,  Dec: +01 44 49.69907 (2000.0)
! Established model.
! Flux (Jy) Radius (mas)  Theta (deg)  Major FWHM (mas)  Axial ratio   Phi (deg) T \
! Freq (Hz)     SpecIndex
0.00743018      7.44070      43.6930      0.00000      1.00000     0.00000  0 2.37680e+10           0 
0.00650437      6.70361      45.4830      0.00000      1.00000     0.00000  0 2.37680e+10           0 
0.00607064      7.42625      43.8000      0.00000      1.00000     0.00000  0 2.37680e+10           0 
0.00282551      6.73166      45.0000      0.00000      1.00000     0.00000  0 2.37680e+10           0 
0.00280484      7.45517      43.5870      0.00000      1.00000     0.00000  0 2.37680e+10           0 
0.00269038      7.41183      43.9070      0.00000      1.00000     0.00000  0 2.37680e+10           0 
0.00255143      6.71765      45.3620      0.00000      1.00000     0.00000  0 2.37680e+10           0 
0.00243321      6.71753      45.1210      0.00000      1.00000     0.00000  0 2.37680e+10           0 
0.00197974      6.70343      45.2420      0.00000      1.00000     0.00000  0 2.37680e+10           0 
0.00165796      6.74581      44.8800      0.00000      1.00000     0.00000  0 2.37680e+10           0 
0.00128354      6.68960      45.6060      0.00000      1.00000     0.00000  0 2.37680e+10           0 
0.000983050      7.39700      44.2330      0.00000      1.00000     0.00000  0 2.37680e+10           0 
0.000908550      7.17022      48.6190      0.00000      1.00000     0.00000  0 2.37680e+10           0 
0.000750820      7.47047      43.2640      0.00000      1.00000     0.00000  0 2.37680e+10           0 
0.000479100      7.41242      43.6880      0.00000      1.00000     0.00000  0 2.37680e+10           0 
0.000426740      7.42690      43.5820      0.00000      1.00000     0.00000  0 2.37680e+10           0 
-0.000184220      7.23992      41.5280      0.00000      1.00000     0.00000  0 2.37680e+10           0 
-0.000295930      7.22496      41.6340      0.00000      1.00000     0.00000  0 2.37680e+10           0 
-0.00106681      6.50544      44.7510      0.00000      1.00000     0.00000  0 2.37680e+10           0 
-0.00148757      6.93334      46.8700      0.00000      1.00000     0.00000  0 2.37680e+10           0 
-0.00213716      7.07158      44.3120      0.00000      1.00000     0.00000  0 2.37680e+10           0 
-0.00243407      7.02866      45.1150      0.00000      1.00000     0.00000  0 2.37680e+10           0 
-0.00249439      7.08590      44.2000      0.00000      1.00000     0.00000  0 2.37680e+10           0 
-0.00628085      7.04278      45.0000      0.00000      1.00000     0.00000  0 2.37680e+10           0 
-0.0232085      7.05705      44.6560      0.00000      1.00000     0.00000  0 2.37680e+10           0 
