! Center RA: 04 18 21.27724,  Dec: +38 01 35.80018 (2000.0)
! Established model.
! Flux (Jy) Radius (mas)  Theta (deg)  Major FWHM (mas)  Axial ratio   Phi (deg) T \
! Freq (Hz)     SpecIndex
0.00111979      7.29032      66.3890      0.00000      1.00000     0.00000  0 8.41588e+09           0 
0.000962430      7.23768      66.5520      0.00000      1.00000     0.00000  0 8.41588e+09           0 
0.000858830      7.25369      66.2620      0.00000      1.00000     0.00000  0 8.41588e+09           0 
0.000791580      5.84055      66.5950      0.00000      1.00000     0.00000  0 8.41588e+09           0 
0.000735020      8.90501      71.4020      0.00000      1.00000     0.00000  0 8.41588e+09           0 
0.000704760      8.09632      68.2510      0.00000      1.00000     0.00000  0 8.41588e+09           0 
0.000503920      5.65303      63.9790      0.00000      1.00000     0.00000  0 8.41588e+09           0 
0.000494080      5.89847      67.2610      0.00000      1.00000     0.00000  0 8.41588e+09           0 
0.000474130      6.08342      67.9890      0.00000      1.00000     0.00000  0 8.41588e+09           0 
0.000374490      6.06854      68.3390      0.00000      1.00000     0.00000  0 8.41588e+09           0 
0.000367010      8.91785      71.1590      0.00000      1.00000     0.00000  0 8.41588e+09           0 
0.000364110      5.38516      68.1990      0.00000      1.00000     0.00000  0 8.41588e+09           0 
0.000355850      6.67760      68.1990      0.00000      1.00000     0.00000  0 8.41588e+09           0 
0.000339760      6.36616      67.4630      0.00000      1.00000     0.00000  0 8.41588e+09           0 
0.000315420      7.22186      66.8430      0.00000      1.00000     0.00000  0 8.41588e+09           0 
0.000299590      8.12739      69.2460      0.00000      1.00000     0.00000  0 8.41588e+09           0 
0.000289410      4.74384      61.2740      0.00000      1.00000     0.00000  0 8.41588e+09           0 
0.000286170      6.72964      68.0090      0.00000      1.00000     0.00000  0 8.41588e+09           0 
0.000273790      2.58488      68.1990      0.00000      1.00000     0.00000  0 8.41588e+09           0 
0.000257700      6.71476      68.3250      0.00000      1.00000     0.00000  0 8.41588e+09           0 
0.000257250      5.31865      74.2910      0.00000      1.00000     0.00000  0 8.41588e+09           0 
0.000243800      8.94293      71.4840      0.00000      1.00000     0.00000  0 8.41588e+09           0 
0.000231510      5.67070      63.6160      0.00000      1.00000     0.00000  0 8.41588e+09           0 
0.000225940      5.80386      66.4380      0.00000      1.00000     0.00000  0 8.41588e+09           0 
0.000220050      2.44393      68.8950      0.00000      1.00000     0.00000  0 8.41588e+09           0 
0.000176390      5.36313      67.6430      0.00000      1.00000     0.00000  0 8.41588e+09           0 
0.000173930      2.60768      69.3410      0.00000      1.00000     0.00000  0 8.41588e+09           0 
0.000172470      9.41259      74.7240      0.00000      1.00000     0.00000  0 8.41588e+09           0 
0.000149450      7.13257      66.8860      0.00000      1.00000     0.00000  0 8.41588e+09           0 
0.000148470      5.93539      67.4100      0.00000      1.00000     0.00000  0 8.41588e+09           0 
0.000147570      6.32923      67.3240      0.00000      1.00000     0.00000  0 8.41588e+09           0 
0.000144780      8.11330      69.5100      0.00000      1.00000     0.00000  0 8.41588e+09           0 
0.000141280      5.78342      65.9170      0.00000      1.00000     0.00000  0 8.41588e+09           0 
0.000136810      8.89305      70.8320      0.00000      1.00000     0.00000  0 8.41588e+09           0 
0.000135610      6.03138      68.1990      0.00000      1.00000     0.00000  0 8.41588e+09           0 
0.000134410      9.44076      75.0220      0.00000      1.00000     0.00000  0 8.41588e+09           0 
0.000133400      7.16938      67.0110      0.00000      1.00000     0.00000  0 8.41588e+09           0 
0.000129120      5.76347      65.3920      0.00000      1.00000     0.00000  0 8.41588e+09           0 
0.000127740      8.14833      68.0940      0.00000      1.00000     0.00000  0 8.41588e+09           0 
0.000119320      5.74401      64.8630      0.00000      1.00000     0.00000  0 8.41588e+09           0 
0.000118760      5.61712      63.8000      0.00000      1.00000     0.00000  0 8.41588e+09           0 
0.000117880      7.07412      69.8230      0.00000      1.00000     0.00000  0 8.41588e+09           0 
0.000110670      5.70782      64.6920      0.00000      1.00000     0.00000  0 8.41588e+09           0 
0.000107020      22.0412     -155.900      0.00000      1.00000     0.00000  0 8.41588e+09           0 
0.000102670      5.67168      64.5190      0.00000      1.00000     0.00000  0 8.41588e+09           0 
0.000100680      7.11697      67.1820      0.00000      1.00000     0.00000  0 8.41588e+09           0 
9.95500e-05      3.84832     -43.3150      0.00000      1.00000     0.00000  0 8.41588e+09           0 
9.52000e-05      12.5936      63.1910      0.00000      1.00000     0.00000  0 8.41588e+09           0 
9.50300e-05      12.5757      63.3530      0.00000      1.00000     0.00000  0 8.41588e+09           0 
9.43100e-05      8.13349      68.3560      0.00000      1.00000     0.00000  0 8.41588e+09           0 
9.36800e-05      6.02528      69.3990      0.00000      1.00000     0.00000  0 8.41588e+09           0 
9.31700e-05      5.68901      64.1560      0.00000      1.00000     0.00000  0 8.41588e+09           0 
9.17200e-05      6.01132      69.7560      0.00000      1.00000     0.00000  0 8.41588e+09           0 
9.04100e-05      19.2983     -69.8750      0.00000      1.00000     0.00000  0 8.41588e+09           0 
8.80300e-05      11.2606      70.2780      0.00000      1.00000     0.00000  0 8.41588e+09           0 
8.31000e-05      3.81932     -43.7270      0.00000      1.00000     0.00000  0 8.41588e+09           0 
8.20400e-05      11.3617     -6.87500      0.00000      1.00000     0.00000  0 8.41588e+09           0 
7.93300e-05      6.05389      68.6910      0.00000      1.00000     0.00000  0 8.41588e+09           0 
7.91900e-05      26.0840     -129.524      0.00000      1.00000     0.00000  0 8.41588e+09           0 
7.15400e-05      7.79189      71.7510      0.00000      1.00000     0.00000  0 8.41588e+09           0 
6.56000e-05      7.14927      70.0440      0.00000      1.00000     0.00000  0 8.41588e+09           0 
5.95500e-05      18.0944     -61.6220      0.00000      1.00000     0.00000  0 8.41588e+09           0 
5.86900e-05      4.76000      61.9280      0.00000      1.00000     0.00000  0 8.41588e+09           0 
5.76300e-05      20.1125      18.7950      0.00000      1.00000     0.00000  0 8.41588e+09           0 
5.71700e-05      12.3616      62.8550      0.00000      1.00000     0.00000  0 8.41588e+09           0 
5.62900e-05      15.2717     -104.873      0.00000      1.00000     0.00000  0 8.41588e+09           0 
5.61100e-05      13.0812     -111.151      0.00000      1.00000     0.00000  0 8.41588e+09           0 
5.56300e-05      4.50440      41.7600      0.00000      1.00000     0.00000  0 8.41588e+09           0 
5.37500e-05      14.1297     -71.0010      0.00000      1.00000     0.00000  0 8.41588e+09           0 
5.24900e-05      14.0421     -179.021      0.00000      1.00000     0.00000  0 8.41588e+09           0 
5.24900e-05      20.0404     -90.3430      0.00000      1.00000     0.00000  0 8.41588e+09           0 
4.65800e-05      2.45862      68.0250      0.00000      1.00000     0.00000  0 8.41588e+09           0 
4.61900e-05      7.11168      69.9340      0.00000      1.00000     0.00000  0 8.41588e+09           0 
4.18300e-05      8.15608      68.7200      0.00000      1.00000     0.00000  0 8.41588e+09           0 
4.16600e-05      7.08011      67.0560      0.00000      1.00000     0.00000  0 8.41588e+09           0 
4.14200e-05      9.35709      64.4210      0.00000      1.00000     0.00000  0 8.41588e+09           0 
4.12600e-05      5.49283      64.5550      0.00000      1.00000     0.00000  0 8.41588e+09           0 
4.01600e-05      8.85528      70.7470      0.00000      1.00000     0.00000  0 8.41588e+09           0 
4.01500e-05      11.1989      69.9470      0.00000      1.00000     0.00000  0 8.41588e+09           0 
3.40400e-05      5.40015      67.8040      0.00000      1.00000     0.00000  0 8.41588e+09           0 
3.31400e-05      5.32962      73.8770      0.00000      1.00000     0.00000  0 8.41588e+09           0 
3.16000e-05      4.70744      49.1350      0.00000      1.00000     0.00000  0 8.41588e+09           0 
3.15500e-05      5.43087      67.0230      0.00000      1.00000     0.00000  0 8.41588e+09           0 
2.96900e-05      5.40992      66.4680      0.00000      1.00000     0.00000  0 8.41588e+09           0 
2.76000e-05      5.42601      66.0800      0.00000      1.00000     0.00000  0 8.41588e+09           0 
2.71600e-05      10.1201     -179.774      0.00000      1.00000     0.00000  0 8.41588e+09           0 
2.71500e-05      15.9996     -21.5620      0.00000      1.00000     0.00000  0 8.41588e+09           0 
2.66800e-05      9.39413      4.88500      0.00000      1.00000     0.00000  0 8.41588e+09           0 
2.63900e-05      20.0996      18.6870      0.00000      1.00000     0.00000  0 8.41588e+09           0 
2.62800e-05      2.09609     -41.9060      0.00000      1.00000     0.00000  0 8.41588e+09           0 
2.60500e-05      25.1440      53.1480      0.00000      1.00000     0.00000  0 8.41588e+09           0 
2.60100e-05      5.44235      65.6960      0.00000      1.00000     0.00000  0 8.41588e+09           0 
2.55500e-05      20.8458     -108.574      0.00000      1.00000     0.00000  0 8.41588e+09           0 
2.55000e-05      18.1134     -61.5110      0.00000      1.00000     0.00000  0 8.41588e+09           0 
2.49300e-05      10.1200     -180.000      0.00000      1.00000     0.00000  0 8.41588e+09           0 
2.47900e-05      5.45894      65.3130      0.00000      1.00000     0.00000  0 8.41588e+09           0 
2.24100e-05      5.47576      64.9330      0.00000      1.00000     0.00000  0 8.41588e+09           0 
2.11800e-05      8.76913      69.9950      0.00000      1.00000     0.00000  0 8.41588e+09           0 
1.87500e-05      8.88576      69.4440      0.00000      1.00000     0.00000  0 8.41588e+09           0 
1.84900e-05      5.51014      64.1790      0.00000      1.00000     0.00000  0 8.41588e+09           0 
1.84500e-05      11.2127      69.7550      0.00000      1.00000     0.00000  0 8.41588e+09           0 
1.76900e-05      8.89989      69.2030      0.00000      1.00000     0.00000  0 8.41588e+09           0 
1.01600e-05      7.22451      70.2610      0.00000      1.00000     0.00000  0 8.41588e+09           0 
-1.00800e-05     0.288444     -33.6900      0.00000      1.00000     0.00000  0 8.41588e+09           0 
-1.01300e-05      9.74105      56.8970      0.00000      1.00000     0.00000  0 8.41588e+09           0 
-1.05400e-05      8.24825      52.6850      0.00000      1.00000     0.00000  0 8.41588e+09           0 
-1.10200e-05      9.72954      56.5710      0.00000      1.00000     0.00000  0 8.41588e+09           0 
-1.15400e-05     0.344093     -54.4620      0.00000      1.00000     0.00000  0 8.41588e+09           0 
-1.15700e-05      9.69618      56.4410      0.00000      1.00000     0.00000  0 8.41588e+09           0 
-1.20300e-05      9.66288      56.3100      0.00000      1.00000     0.00000  0 8.41588e+09           0 
-1.22300e-05      8.33614      52.8000      0.00000      1.00000     0.00000  0 8.41588e+09           0 
-1.31900e-05      8.36803      52.9660      0.00000      1.00000     0.00000  0 8.41588e+09           0 
-1.32200e-05     0.430813     -68.1990      0.00000      1.00000     0.00000  0 8.41588e+09           0 
-1.36200e-05      9.53016      55.7760      0.00000      1.00000     0.00000  0 8.41588e+09           0 
-1.38700e-05      8.42406      52.9120      0.00000      1.00000     0.00000  0 8.41588e+09           0 
-1.44800e-05     0.533667     -77.0050      0.00000      1.00000     0.00000  0 8.41588e+09           0 
-1.48900e-05      8.48009      52.8600      0.00000      1.00000     0.00000  0 8.41588e+09           0 
-1.53100e-05      9.36547      55.0880      0.00000      1.00000     0.00000  0 8.41588e+09           0 
-1.57100e-05      9.33270      54.9480      0.00000      1.00000     0.00000  0 8.41588e+09           0 
-1.62700e-05      8.60000      53.1300      0.00000      1.00000     0.00000  0 8.41588e+09           0 
-1.67600e-05      9.23472      54.5200      0.00000      1.00000     0.00000  0 8.41588e+09           0 
-1.72500e-05      8.96080      53.8970      0.00000      1.00000     0.00000  0 8.41588e+09           0 
-1.77300e-05      8.92852      53.7460      0.00000      1.00000     0.00000  0 8.41588e+09           0 
-1.81300e-05      3.66824      71.5650      0.00000      1.00000     0.00000  0 8.41588e+09           0 
-1.82100e-05      8.31202      53.0200      0.00000      1.00000     0.00000  0 8.41588e+09           0 
-1.85400e-05      8.56131      58.7610      0.00000      1.00000     0.00000  0 8.41588e+09           0 
-1.88300e-05      7.33398      55.4430      0.00000      1.00000     0.00000  0 8.41588e+09           0 
-1.99500e-05      8.54803      58.3930      0.00000      1.00000     0.00000  0 8.41588e+09           0 
-2.10000e-05      9.70756      56.7680      0.00000      1.00000     0.00000  0 8.41588e+09           0 
-2.14000e-05      4.00000      73.7400      0.00000      1.00000     0.00000  0 8.41588e+09           0 
-2.28700e-05      8.28010      52.8530      0.00000      1.00000     0.00000  0 8.41588e+09           0 
-2.36700e-05      8.35225      53.5690      0.00000      1.00000     0.00000  0 8.41588e+09           0 
-2.46200e-05      8.59023      57.9380      0.00000      1.00000     0.00000  0 8.41588e+09           0 
-2.48100e-05      12.7284     -45.5090      0.00000      1.00000     0.00000  0 8.41588e+09           0 
-2.49700e-05      13.5645      29.8920      0.00000      1.00000     0.00000  0 8.41588e+09           0 
-2.50600e-05      8.45818      54.4310      0.00000      1.00000     0.00000  0 8.41588e+09           0 
-2.52100e-05      21.9900     -150.824      0.00000      1.00000     0.00000  0 8.41588e+09           0 
-2.53700e-05      16.4086      37.3730      0.00000      1.00000     0.00000  0 8.41588e+09           0 
-2.56100e-05      26.0302     -138.052      0.00000      1.00000     0.00000  0 8.41588e+09           0 
-2.56400e-05      9.59642      56.0450      0.00000      1.00000     0.00000  0 8.41588e+09           0 
-2.57200e-05      8.25688     -66.2910      0.00000      1.00000     0.00000  0 8.41588e+09           0 
-2.59100e-05      14.6769      4.06300      0.00000      1.00000     0.00000  0 8.41588e+09           0 
-2.62300e-05      16.6969      33.2710      0.00000      1.00000     0.00000  0 8.41588e+09           0 
-2.70200e-05      13.5992      29.8080      0.00000      1.00000     0.00000  0 8.41588e+09           0 
-2.72400e-05      24.8042     -139.709      0.00000      1.00000     0.00000  0 8.41588e+09           0 
-2.88500e-05      9.46412      55.5040      0.00000      1.00000     0.00000  0 8.41588e+09           0 
-3.08500e-05      4.03842      73.8990      0.00000      1.00000     0.00000  0 8.41588e+09           0 
-3.73700e-05      8.89629      53.5940      0.00000      1.00000     0.00000  0 8.41588e+09           0 
-3.78900e-05      7.38961      55.3640      0.00000      1.00000     0.00000  0 8.41588e+09           0 
-3.84900e-05     0.843801     -84.5600      0.00000      1.00000     0.00000  0 8.41588e+09           0 
-3.98100e-05      8.86413      53.4400      0.00000      1.00000     0.00000  0 8.41588e+09           0 
-4.01000e-05     0.698570     -13.2410      0.00000      1.00000     0.00000  0 8.41588e+09           0 
-4.03000e-05      7.08915      56.0410      0.00000      1.00000     0.00000  0 8.41588e+09           0 
-4.20800e-05      11.7718      57.0660      0.00000      1.00000     0.00000  0 8.41588e+09           0 
-4.22400e-05      8.34400      53.1850      0.00000      1.00000     0.00000  0 8.41588e+09           0 
-4.29200e-05      7.05600      55.8590      0.00000      1.00000     0.00000  0 8.41588e+09           0 
-4.34100e-05      7.35674      55.1870      0.00000      1.00000     0.00000  0 8.41588e+09           0 
-4.41600e-05      8.56906      58.1650      0.00000      1.00000     0.00000  0 8.41588e+09           0 
-4.53900e-05      9.41913      56.7820      0.00000      1.00000     0.00000  0 8.41588e+09           0 
-5.21000e-05      22.1992     -33.8330      0.00000      1.00000     0.00000  0 8.41588e+09           0 
-5.24300e-05      19.5141      158.853      0.00000      1.00000     0.00000  0 8.41588e+09           0 
-5.24800e-05      6.63421      56.3100      0.00000      1.00000     0.00000  0 8.41588e+09           0 
-5.45100e-05      11.2884     -152.799      0.00000      1.00000     0.00000  0 8.41588e+09           0 
-5.51300e-05      6.26929      111.326      0.00000      1.00000     0.00000  0 8.41588e+09           0 
-5.52000e-05      8.52713     -78.6370      0.00000      1.00000     0.00000  0 8.41588e+09           0 
-5.56900e-05      10.3250      59.7590      0.00000      1.00000     0.00000  0 8.41588e+09           0 
-5.76500e-05     0.803990     -84.2890      0.00000      1.00000     0.00000  0 8.41588e+09           0 
-5.82600e-05      8.22027     -66.1790      0.00000      1.00000     0.00000  0 8.41588e+09           0 
-5.94100e-05      9.44110      56.5790      0.00000      1.00000     0.00000  0 8.41588e+09           0 
-6.11500e-05      15.5542      112.212      0.00000      1.00000     0.00000  0 8.41588e+09           0 
-6.22100e-05      11.3067     -152.619      0.00000      1.00000     0.00000  0 8.41588e+09           0 
-6.35000e-05      22.8527     -120.155      0.00000      1.00000     0.00000  0 8.41588e+09           0 
-6.55200e-05      8.23650     -65.9250      0.00000      1.00000     0.00000  0 8.41588e+09           0 
-6.83200e-05     0.544059     -17.1030      0.00000      1.00000     0.00000  0 8.41588e+09           0 
-7.82800e-05      9.30841      56.9250      0.00000      1.00000     0.00000  0 8.41588e+09           0 
-7.88400e-05      3.65579      72.1600      0.00000      1.00000     0.00000  0 8.41588e+09           0 
-7.92600e-05      15.5913      112.156      0.00000      1.00000     0.00000  0 8.41588e+09           0 
-8.00900e-05      8.52404     -29.2110      0.00000      1.00000     0.00000  0 8.41588e+09           0 
-8.12700e-05      1.60000      53.1300      0.00000      1.00000     0.00000  0 8.41588e+09           0 
-8.23400e-05      6.75846      96.1160      0.00000      1.00000     0.00000  0 8.41588e+09           0 
-8.36200e-05      15.9108      28.3690      0.00000      1.00000     0.00000  0 8.41588e+09           0 
-8.47700e-05      1.99279      51.5200      0.00000      1.00000     0.00000  0 8.41588e+09           0 
-8.86600e-05      8.83203      53.2860      0.00000      1.00000     0.00000  0 8.41588e+09           0 
-9.03400e-05      3.73202      72.5360      0.00000      1.00000     0.00000  0 8.41588e+09           0 
-9.68200e-05     0.572713     -12.0950      0.00000      1.00000     0.00000  0 8.41588e+09           0 
-9.88300e-05      6.66753      56.5010      0.00000      1.00000     0.00000  0 8.41588e+09           0 
-0.000107810     0.923472     -85.0300      0.00000      1.00000     0.00000  0 8.41588e+09           0 
-0.000107880      22.7981     -120.119      0.00000      1.00000     0.00000  0 8.41588e+09           0 
-0.000112630      8.49075      54.5880      0.00000      1.00000     0.00000  0 8.41588e+09           0 
-0.000112830      12.6999     -45.3830      0.00000      1.00000     0.00000  0 8.41588e+09           0 
-0.000114270      3.78227      72.1400      0.00000      1.00000     0.00000  0 8.41588e+09           0 
-0.000120710      4.32241      78.7940      0.00000      1.00000     0.00000  0 8.41588e+09           0 
-0.000131780      6.61211      56.5980      0.00000      1.00000     0.00000  0 8.41588e+09           0 
-0.000137170      3.74422      71.9520      0.00000      1.00000     0.00000  0 8.41588e+09           0 
-0.000144320      9.34195      57.0580      0.00000      1.00000     0.00000  0 8.41588e+09           0 
-0.000145780      1.96815      52.4310      0.00000      1.00000     0.00000  0 8.41588e+09           0 
-0.000166240      6.67892      55.7390      0.00000      1.00000     0.00000  0 8.41588e+09           0 
-0.000170760      3.69389      72.3500      0.00000      1.00000     0.00000  0 8.41588e+09           0 
-0.000187720      18.8614     -166.759      0.00000      1.00000     0.00000  0 8.41588e+09           0 
-0.000228710      9.36376      56.8530      0.00000      1.00000     0.00000  0 8.41588e+09           0 
-0.000233770      6.68969      56.2150      0.00000      1.00000     0.00000  0 8.41588e+09           0 
-0.000247320      6.71202      55.9310      0.00000      1.00000     0.00000  0 8.41588e+09           0 
-0.000248300      1.16000     -133.603      0.00000      1.00000     0.00000  0 8.41588e+09           0 
-0.000273620      10.4739      67.5490      0.00000      1.00000     0.00000  0 8.41588e+09           0 
-0.000274290      6.65649      56.0240      0.00000      1.00000     0.00000  0 8.41588e+09           0 
-0.000329600      4.30070      80.3630      0.00000      1.00000     0.00000  0 8.41588e+09           0 
-0.000359780      4.33036      78.2750      0.00000      1.00000     0.00000  0 8.41588e+09           0 
-0.000428870      6.70152      55.4560      0.00000      1.00000     0.00000  0 8.41588e+09           0 
-0.000917120      6.73451      55.6490      0.00000      1.00000     0.00000  0 8.41588e+09           0 
-0.00133368      6.72428      55.1750      0.00000      1.00000     0.00000  0 8.41588e+09           0 
