! Center RA: 02 17 48.95475,  Dec: +01 44 49.69907 (2000.0)
! Established model.
! Flux (Jy) Radius (mas)  Theta (deg)  Major FWHM (mas)  Axial ratio   Phi (deg) T \
! Freq (Hz)     SpecIndex
 0.0421902      7.03580      44.7120      0.00000      1.00000     0.00000  0 1.53680e+10           0 
 0.0217463      7.07142      44.4270      0.00000      1.00000     0.00000  0 1.53680e+10           0 
0.00413725      7.03580      45.2880      0.00000      1.00000     0.00000  0 1.53680e+10           0 
0.00240939      6.11739      45.9930      0.00000      1.00000     0.00000  0 1.53680e+10           0 
0.00175770      7.10862      43.5750      0.00000      1.00000     0.00000  0 1.53680e+10           0 
0.00149143      7.14493      43.2990      0.00000      1.00000     0.00000  0 1.53680e+10           0 
0.000812040      8.24621      50.9060      0.00000      1.00000     0.00000  0 1.53680e+10           0 
0.000394560      7.84920      44.4840      0.00000      1.00000     0.00000  0 1.53680e+10           0 
0.000298150      8.27784      50.6380      0.00000      1.00000     0.00000  0 1.53680e+10           0 
0.000252290      7.77818      45.0000      0.00000      1.00000     0.00000  0 1.53680e+10           0 
0.000240660      7.07248      43.8540      0.00000      1.00000     0.00000  0 1.53680e+10           0 
0.000227090      7.81361      44.7410      0.00000      1.00000     0.00000  0 1.53680e+10           0 
0.000195110      7.70876      46.0510      0.00000      1.00000     0.00000  0 1.53680e+10           0 
0.000190440      7.67415      46.3200      0.00000      1.00000     0.00000  0 1.53680e+10           0 
0.000147970      7.00071      45.5790      0.00000      1.00000     0.00000  0 1.53680e+10           0 
0.000120280      7.74355      45.7850      0.00000      1.00000     0.00000  0 1.53680e+10           0 
0.000104470      7.77850      45.5210      0.00000      1.00000     0.00000  0 1.53680e+10           0 
6.83300e-05      7.74290      45.2620      0.00000      1.00000     0.00000  0 1.53680e+10           0 
4.33900e-05      7.88495      44.2290      0.00000      1.00000     0.00000  0 1.53680e+10           0 
2.81100e-05      7.63970      46.5910      0.00000      1.00000     0.00000  0 1.53680e+10           0 
-4.22400e-05      6.76240      51.6050      0.00000      1.00000     0.00000  0 1.53680e+10           0 
-5.46500e-05      6.96563      39.1740      0.00000      1.00000     0.00000  0 1.53680e+10           0 
-5.70100e-05      6.54083      44.6900      0.00000      1.00000     0.00000  0 1.53680e+10           0 
-5.97200e-05      6.92693      39.4350      0.00000      1.00000     0.00000  0 1.53680e+10           0 
-6.35700e-05      6.81175      40.2360      0.00000      1.00000     0.00000  0 1.53680e+10           0 
-6.66700e-05      6.50577      45.6230      0.00000      1.00000     0.00000  0 1.53680e+10           0 
-7.17200e-05      6.76849      41.1060      0.00000      1.00000     0.00000  0 1.53680e+10           0 
-0.000105300      7.51682      55.5700      0.00000      1.00000     0.00000  0 1.53680e+10           0 
-0.000122720      6.87060      53.8810      0.00000      1.00000     0.00000  0 1.53680e+10           0 
-0.000144680      6.65019      43.1720      0.00000      1.00000     0.00000  0 1.53680e+10           0 
-0.000198190      6.57761      43.7680      0.00000      1.00000     0.00000  0 1.53680e+10           0 
-0.000214520      7.00446      38.9150      0.00000      1.00000     0.00000  0 1.53680e+10           0 
-0.000220950      8.04316      48.7810      0.00000      1.00000     0.00000  0 1.53680e+10           0 
-0.000224920      6.88840      39.6990      0.00000      1.00000     0.00000  0 1.53680e+10           0 
-0.000272010      6.68973      42.2740      0.00000      1.00000     0.00000  0 1.53680e+10           0 
-0.000294470      6.61381      43.4680      0.00000      1.00000     0.00000  0 1.53680e+10           0 
-0.000319130      6.85000      39.9660      0.00000      1.00000     0.00000  0 1.53680e+10           0 
-0.000453880      6.57647      44.3840      0.00000      1.00000     0.00000  0 1.53680e+10           0 
-0.000620600      6.42027      52.5950      0.00000      1.00000     0.00000  0 1.53680e+10           0 
-0.000886720      8.11372      48.7480      0.00000      1.00000     0.00000  0 1.53680e+10           0 
-0.00104439      6.54083      45.3100      0.00000      1.00000     0.00000  0 1.53680e+10           0 
-0.00142978      6.61230      44.0810      0.00000      1.00000     0.00000  0 1.53680e+10           0 
-0.00204701      8.08085      49.0140      0.00000      1.00000     0.00000  0 1.53680e+10           0 
